LabVIEW Measurement	
Writer_Version	2
Reader_Version	2
Separator	Tab
Decimal_Separator	.
Multi_Headings	Yes
X_Columns	No
Time_Pref	Relative
Operator	Isaac
Date	2020/07/30
Time	11:37:44.390625
***End_of_Header***	
	
Channels	3			
Samples	1000	1000	1000	
Date	2020/07/30	2020/07/30	2020/07/30	
Time	11:37:44.390625	11:37:44.390625	11:37:44.390625	
X_Dimension	Time	Time	Time	
X0	0.0000000000000000E+0	0.0000000000000000E+0	0.0000000000000000E+0	
Delta_X	1.000000	1.000000	1.000000	
***End_of_Header***				
X_Value	Untitled	Untitled 1	Untitled 2	Comment
	0.000000	365.921749	0.937704
	1.000000	366.793251	0.937463
	2.000000	366.146096	0.937748
	3.000000	365.800947	0.937551
	4.000000	365.516199	0.937266
	5.000000	364.782757	0.937485
	6.000000	364.739614	0.937594
	7.000000	364.204633	0.937682
	8.000000	363.548849	0.937222
	9.000000	363.376275	0.937331
	10.000000	362.772264	0.937616
	11.000000	362.539288	0.936871
	12.000000	361.702302	0.937551
	13.000000	361.244979	0.937572
	14.000000	360.804914	0.937025
	15.000000	360.304448	0.937003
	16.000000	359.812610	0.937156
	17.000000	359.476090	0.937244
	18.000000	359.027396	0.937792
	19.000000	358.371613	0.937594
	20.000000	358.069607	0.937704
	21.000000	357.301651	0.937288
	22.000000	356.896100	0.937660
	23.000000	356.671754	0.937200
	24.000000	356.352491	0.937704
	25.000000	355.455103	0.937309
	26.000000	355.109954	0.937309
	27.000000	354.462799	0.937090
	28.000000	354.031363	0.936915
	29.000000	353.643070	0.937551
	30.000000	353.108089	0.937178
	31.000000	352.504078	0.937572
	32.000000	352.029498	0.937638
	33.000000	351.580804	0.936981
	34.000000	351.192512	0.937660
	35.000000	350.597130	0.937200
	36.000000	349.967232	0.937134
	37.000000	349.354593	0.937572
	38.000000	349.052587	0.937463
	39.000000	348.500349	0.937485
	40.000000	347.982625	0.937046
	41.000000	347.214669	0.937266
	42.000000	346.826376	0.937529
	43.000000	346.067048	0.937222
	44.000000	345.575210	0.937419
	45.000000	345.186918	0.937397
	46.000000	344.988457	0.937748
	47.000000	343.832208	0.937419
	48.000000	343.616489	0.937353
	49.000000	343.021107	0.937507
	50.000000	342.624186	0.937529
	51.000000	342.071947	0.937353
	52.000000	341.519709	0.937309
	53.000000	340.786267	0.937485
	54.000000	340.104598	0.937441
	55.000000	339.957909	0.937200
	56.000000	338.922462	0.937178
	57.000000	338.689486	0.937616
	58.000000	337.835242	0.937463
	59.000000	337.162202	0.936827
	60.000000	336.627221	0.937485
	61.000000	335.902408	0.937792
	62.000000	335.522744	0.937594
	63.000000	334.720272	0.937375
	64.000000	333.952316	0.937068
	65.000000	333.417334	0.937156
	66.000000	332.813324	0.937507
	67.000000	332.088511	0.937266
	68.000000	331.346440	0.937266
	69.000000	330.863231	0.936959
	70.000000	330.328250	0.937419
	71.000000	329.862299	0.937375
	72.000000	328.930397	0.937529
	73.000000	328.067524	0.937529
	74.000000	327.610202	0.937682
	75.000000	326.773215	0.937156
	76.000000	326.195091	0.937792
	77.000000	325.461649	0.937288
	78.000000	324.805866	0.937463
	79.000000	323.925736	0.937485
	80.000000	323.131893	0.937200
	81.000000	322.622798	0.936805
	82.000000	321.863470	0.937485
	83.000000	321.052370	0.937901
	84.000000	320.077324	0.937638
	85.000000	319.404283	0.937507
	86.000000	318.929703	0.937441
	87.000000	318.040944	0.937222
	88.000000	317.290245	0.937419
	89.000000	316.548175	0.937156
	90.000000	315.659416	0.937463
	91.000000	315.089920	0.936696
	92.000000	313.942300	0.937353
	93.000000	313.312403	0.937375
	94.000000	312.423644	0.937594
	95.000000	311.500370	0.937485
	96.000000	310.620240	0.937309
	97.000000	309.947200	0.937704
	98.000000	308.998040	0.937857
	99.000000	308.031623	0.937156
	100.000000	307.203265	0.937156
	101.000000	306.314506	0.937594
	102.000000	305.443005	0.937353
	103.000000	304.148696	0.937397
	104.000000	303.441141	0.937507
	105.000000	302.811244	0.937419
	106.000000	301.637737	0.937156
	107.000000	300.878409	0.937025
	108.000000	299.756675	0.937572
	109.000000	298.738485	0.937704
	110.000000	297.875613	0.937419
	111.000000	297.012740	0.937244
	112.000000	295.571743	0.937244
	113.000000	295.079906	0.937419
	114.000000	293.794226	0.937419
	115.000000	292.801922	0.937244
	116.000000	291.576643	0.937660
	117.000000	290.385879	0.937288
	118.000000	289.505749	0.937770
	119.000000	288.358129	0.937178
	120.000000	287.227766	0.937879
	121.000000	286.200948	0.937682
	122.000000	285.243159	0.937551
	123.000000	283.784905	0.937353
	124.000000	282.835745	0.937178
	125.000000	281.489664	0.937288
	126.000000	280.385187	0.937419
	127.000000	279.444656	0.937200
	128.000000	278.133090	0.937178
	129.000000	276.942326	0.937682
	130.000000	276.044939	0.937353
	131.000000	274.543541	0.937266
	132.000000	273.430435	0.937616
	133.000000	272.196528	0.937463
	134.000000	270.798675	0.937726
	135.000000	269.504366	0.936740
	136.000000	268.563835	0.937331
	137.000000	266.803575	0.936783
	138.000000	265.509267	0.937441
	139.000000	264.378904	0.937923
	140.000000	263.231283	0.937156
	141.000000	261.643598	0.937419
	142.000000	260.513235	0.937594
	143.000000	258.856520	0.936783
	144.000000	257.717529	0.937551
	145.000000	256.474993	0.937288
	146.000000	254.835535	0.937835
	147.000000	253.549855	0.937200
	148.000000	252.384978	0.937200
	149.000000	250.849065	0.937594
	150.000000	249.597900	0.937529
	151.000000	248.182789	0.937748
	152.000000	246.664134	0.936783
	153.000000	245.585544	0.937003
	154.000000	244.058260	0.937397
	155.000000	242.315257	0.936783
	156.000000	241.245296	0.937178
	157.000000	239.364234	0.937397
	158.000000	237.880094	0.937309
	159.000000	236.611671	0.937353
	160.000000	235.067130	0.937485
	161.000000	233.488074	0.937463
	162.000000	232.133364	0.937375
	163.000000	230.847684	0.937025
	164.000000	229.242742	0.936740
	165.000000	227.491111	0.937178
	166.000000	226.093258	0.937594
	167.000000	224.255340	0.937003
	168.000000	223.150864	0.937529
	169.000000	221.485520	0.937003
	170.000000	219.897835	0.937551
	171.000000	218.258378	0.937222
	172.000000	216.817381	0.937594
	173.000000	214.988092	0.937266
	174.000000	213.607497	0.937616
	175.000000	211.700549	0.937704
	176.000000	210.673731	0.937309
	177.000000	208.568323	0.937616
	178.000000	206.954752	0.937353
	179.000000	205.323923	0.937266
	180.000000	203.917442	0.937222
	181.000000	201.975979	0.936959
	182.000000	200.440067	0.937463
	183.000000	198.938669	0.937244
	184.000000	196.902291	0.937463
	185.000000	195.340492	0.936959
	186.000000	193.614748	0.937551
	187.000000	192.001177	0.937331
	188.000000	190.396235	0.937419
	189.000000	188.713634	0.937419
	190.000000	187.108692	0.937309
	191.000000	185.124086	0.937112
	192.000000	183.743490	0.937222
	193.000000	182.035004	0.937441
	194.000000	180.059026	0.937485
	195.000000	178.229738	0.937309
	196.000000	176.331419	0.937266
	197.000000	174.916309	0.936959
	198.000000	173.095648	0.937244
	199.000000	171.085157	0.937134
	200.000000	169.618274	0.937419
	201.000000	168.021961	0.936915
	202.000000	166.063241	0.937507
	203.000000	164.458299	0.937309
	204.000000	162.456436	0.937178
	205.000000	160.842865	0.937309
	206.000000	158.953175	0.937572
	207.000000	157.072114	0.937266
	208.000000	155.389514	0.936959
	209.000000	153.655141	0.937485
	210.000000	151.687793	0.937463
	211.000000	149.754959	0.937331
	212.000000	147.994700	0.937529
	213.000000	146.208555	0.937288
	214.000000	144.396524	0.937331
	215.000000	142.541349	0.937485
	216.000000	140.789719	0.937419
	217.000000	139.133005	0.937288
	218.000000	137.018968	0.937156
	219.000000	135.189680	0.937178
	220.000000	133.369020	0.937309
	221.000000	131.565617	0.937309
	222.000000	129.632784	0.937397
	223.000000	127.605035	0.937178
	224.000000	126.025979	0.937594
	225.000000	124.136290	0.937309
	226.000000	122.237972	0.937397
	227.000000	120.451827	0.937288
	228.000000	118.518993	0.937090
	229.000000	116.422215	0.937046
	230.000000	114.886303	0.937309
	231.000000	113.057014	0.936937
	232.000000	110.692745	0.937463
	233.000000	109.381180	0.937375
	234.000000	107.180857	0.937112
	235.000000	105.403340	0.937134
	236.000000	103.530908	0.937288
	237.000000	101.563561	0.937112
	238.000000	99.863703	0.937923
	239.000000	97.525320	0.937660
	240.000000	95.816834	0.937375
	241.000000	93.737313	0.937025
	242.000000	92.192772	0.936915
	243.000000	89.837132	0.937068
	244.000000	88.111388	0.937068
	245.000000	86.463303	0.937551
	246.000000	84.012747	0.937485
	247.000000	82.278375	0.937178
	248.000000	80.535373	0.936981
	249.000000	78.438595	0.936959
	250.000000	76.453990	0.937660
	251.000000	74.616073	0.936981
	252.000000	72.631468	0.937025
	253.000000	70.560575	0.937003
	254.000000	68.921119	0.937923
	255.000000	66.936514	0.936827
	256.000000	64.882879	0.937397
	257.000000	62.932789	0.936849
	258.000000	60.879154	0.937704
	259.000000	58.894549	0.937068
	260.000000	57.117033	0.937353
	261.000000	55.184200	0.937441
	262.000000	53.225482	0.937572
	263.000000	51.258134	0.937156
	264.000000	49.437475	0.937134
	265.000000	47.478756	0.936981
	266.000000	45.425121	0.937331
	267.000000	43.216170	0.937353
	268.000000	41.524941	0.937112
	269.000000	39.764683	0.937003
	270.000000	37.486701	0.937112
	271.000000	35.458953	0.937178
	272.000000	33.629665	0.937112
	273.000000	31.576030	0.937244
	274.000000	29.651826	0.937309
	275.000000	27.416989	0.936805
	276.000000	25.751646	0.937200
	277.000000	23.525438	0.937309
	278.000000	21.825580	0.937485
	279.000000	20.125723	0.936674
	280.000000	17.614767	0.937244
	281.000000	16.018454	0.937134
	282.000000	13.844018	0.937200
	283.000000	12.170047	0.937419
	284.000000	9.926580	0.937200
	285.000000	8.218095	0.937003
	286.000000	6.095430	0.937025
	287.000000	4.067682	0.936170
	288.000000	1.927761	0.937178
	289.000000	-0.220790	0.936937
	290.000000	-1.886132	0.937025
	291.000000	-3.879365	0.936959
	292.000000	-5.605108	0.937222
	293.000000	-7.753659	0.937134
	294.000000	-9.721006	0.937090
	295.000000	-11.377719	0.937046
	296.000000	-13.526270	0.937244
	297.000000	-15.562646	0.937353
	298.000000	-17.581766	0.937090
	299.000000	-19.609514	0.937375
	300.000000	-21.438802	0.937353
	301.000000	-23.414777	0.937068
	302.000000	-25.399382	0.937353
	303.000000	-27.427130	0.936696
	304.000000	-29.256418	0.937090
	305.000000	-31.344567	0.937200
	306.000000	-33.242884	0.937288
	307.000000	-35.149830	0.937003
	308.000000	-37.177578	0.937112
	309.000000	-39.170811	0.937178
	310.000000	-40.931069	0.936915
	311.000000	-42.803500	0.937112
	312.000000	-44.563758	0.937244
	313.000000	-46.341274	0.937025
	314.000000	-48.463937	0.937090
	315.000000	-50.836834	0.937025
	316.000000	-52.640235	0.937112
	317.000000	-54.322835	0.937397
	318.000000	-56.039949	0.937046
	319.000000	-58.568162	0.936630
	320.000000	-60.121331	0.937222
	321.000000	-62.252623	0.936411
	322.000000	-63.969737	0.937397
	323.000000	-66.161431	0.936871
	324.000000	-67.740486	0.937003
	325.000000	-69.707832	0.936959
	326.000000	-71.813239	0.937507
	327.000000	-73.720185	0.936367
	328.000000	-75.437299	0.936740
	329.000000	-77.361502	0.937090
	330.000000	-79.337477	0.936893
	331.000000	-81.261681	0.936805
	332.000000	-83.108225	0.937134
	333.000000	-84.954770	0.936542
	334.000000	-86.723657	0.937200
	335.000000	-88.967122	0.933868
	336.000000	-90.770523	0.923085
	337.000000	-92.401350	0.919206
	338.000000	-94.092578	0.919469
	339.000000	-96.146212	0.918505
	340.000000	-98.199846	0.918680
	341.000000	-100.011876	0.918790
	342.000000	-102.039623	0.918658
	343.000000	-103.739480	0.918987
	344.000000	-105.499737	0.919447
	345.000000	-107.216851	0.918724
	346.000000	-108.856307	0.918921
	347.000000	-110.711480	0.918373
	348.000000	-112.670198	0.918833
	349.000000	-114.516743	0.918833
	350.000000	-116.604891	0.919272
	351.000000	-118.322005	0.918768
	352.000000	-120.090892	0.919294
	353.000000	-121.687203	0.918439
	354.000000	-123.585520	0.919075
	355.000000	-125.587382	0.918746
	356.000000	-127.408040	0.919294
	357.000000	-129.220070	0.918680
	358.000000	-130.790496	0.919316
	359.000000	-132.542124	0.918527
	360.000000	-134.345525	0.919118
	361.000000	-136.174812	0.918921
	362.000000	-138.090387	0.919140
	363.000000	-139.643555	0.918614
	364.000000	-141.567758	0.919118
	365.000000	-143.189956	0.918724
	366.000000	-144.803525	0.918768
	367.000000	-146.468866	0.918549
	368.000000	-148.531129	0.919031
	369.000000	-150.300015	0.918680
	370.000000	-152.008500	0.919118
	371.000000	-153.699728	0.918812
	372.000000	-155.321925	0.919272
	373.000000	-156.952752	0.918943
	374.000000	-158.549064	0.918877
	375.000000	-160.930588	0.918965
	376.000000	-162.285296	0.918877
	377.000000	-164.080068	0.919184
	378.000000	-165.434776	0.919031
	379.000000	-167.203662	0.918790
	380.000000	-169.136494	0.919140
	381.000000	-170.655147	0.918746
	382.000000	-172.346374	0.918855
	383.000000	-174.141147	0.918724
	384.000000	-175.901404	0.918965
	385.000000	-177.609889	0.919009
	386.000000	-179.033626	0.918987
	387.000000	-180.880170	0.918417
	388.000000	-182.295279	0.918987
	389.000000	-183.951992	0.919425
	390.000000	-185.574190	0.919250
	391.000000	-187.153244	0.918746
	392.000000	-188.568353	0.918636
	393.000000	-190.570214	0.918614
	394.000000	-192.330471	0.918899
	395.000000	-193.978555	0.918549
	396.000000	-195.393663	0.918921
	397.000000	-197.205693	0.918680
	398.000000	-198.629430	0.919250
	399.000000	-200.087682	0.918461
	400.000000	-202.003256	0.918987
	401.000000	-203.194019	0.918702
	402.000000	-204.885246	0.918768
	403.000000	-206.861221	0.918286
	404.000000	-208.060612	0.919184
	405.000000	-209.743210	0.918417
	406.000000	-211.417180	0.919118
	407.000000	-213.004863	0.918943
	408.000000	-214.264655	0.919162
	409.000000	-216.007655	0.918505
	410.000000	-217.509050	0.918943
	411.000000	-219.148505	0.918855
	412.000000	-220.304753	0.918855
	413.000000	-221.961465	0.918570
	414.000000	-223.566405	0.918899
	415.000000	-225.050544	0.918570
	416.000000	-226.344850	0.919053
	417.000000	-228.061964	0.918680
	418.000000	-229.477072	0.918987
	419.000000	-231.030240	0.918899
	420.000000	-232.151973	0.919009
	421.000000	-233.851829	0.918812
	422.000000	-235.258309	0.918724
	423.000000	-236.776962	0.918483
	424.000000	-238.217956	0.919096
	425.000000	-239.667580	0.918570
	426.000000	-241.125832	0.918702
	427.000000	-242.532312	0.918965
	428.000000	-244.050965	0.918329
	429.000000	-245.457445	0.918461
	430.000000	-246.484261	0.919250
	431.000000	-248.373949	0.919031
	432.000000	-249.642369	0.918395
	433.000000	-251.186908	0.918877
	434.000000	-252.205096	0.918833
	435.000000	-253.697863	0.918680
	436.000000	-255.302803	0.918592
	437.000000	-256.648882	0.918833
	438.000000	-258.029476	0.918943
	439.000000	-259.297896	0.918614
	440.000000	-260.324713	0.919140
	441.000000	-262.223029	0.918724
	442.000000	-263.085900	0.918746
	443.000000	-264.872043	0.918658
	444.000000	-265.993775	0.918724
	445.000000	-267.063735	0.918833
	446.000000	-268.435700	0.919075
	447.000000	-270.144185	0.918746
	448.000000	-271.041571	0.918680
	449.000000	-272.594738	0.918549
	450.000000	-273.897674	0.919272
	451.000000	-274.950376	0.918746
	452.000000	-276.693376	0.918965
	453.000000	-277.832365	0.918461
	454.000000	-278.962726	0.919206
	455.000000	-280.274290	0.918439
	456.000000	-281.611740	0.918987
	457.000000	-282.906047	0.918636
	458.000000	-284.010522	0.918746
	459.000000	-285.313457	0.918746
	460.000000	-286.728565	0.919053
	461.000000	-287.367090	0.918439
	462.000000	-288.963401	0.918833
	463.000000	-290.343995	0.919031
	464.000000	-291.068806	0.918855
	465.000000	-292.406256	0.918505
	466.000000	-293.683305	0.919118
	467.000000	-294.753265	0.918746
	468.000000	-296.116601	0.918110
	469.000000	-297.031245	0.918636
	470.000000	-298.558526	0.919140
	471.000000	-299.430026	0.918483
	472.000000	-300.836505	0.918110
	473.000000	-301.664862	0.918439
	474.000000	-303.140371	0.919031
	475.000000	-304.193073	0.919031
	476.000000	-305.513266	0.918329
	477.000000	-306.514196	0.918790
	478.000000	-307.644557	0.918483
	479.000000	-308.559200	0.918636
	480.000000	-309.741334	0.918614
	481.000000	-310.897581	0.918570
	482.000000	-312.036570	0.918549
	483.000000	-313.287733	0.918790
	484.000000	-314.262777	0.918614
	485.000000	-315.393138	0.918461
	486.000000	-316.333668	0.918833
	487.000000	-317.446771	0.918680
	488.000000	-318.689305	0.919184
	489.000000	-319.724750	0.918921
	490.000000	-320.742938	0.918965
	491.000000	-321.873299	0.918877
	492.000000	-322.874229	0.918790
	493.000000	-323.857902	0.918549
	494.000000	-325.014149	0.918790
	495.000000	-325.928792	0.918658
	496.000000	-326.886579	0.918549
	497.000000	-327.965168	0.918768
	498.000000	-328.707237	0.919359
	499.000000	-330.303548	0.918987
	500.000000	-331.131904	0.918812
	501.000000	-332.072433	0.918987
	502.000000	-331.804943	0.918702
	503.000000	-331.779057	0.918702
	504.000000	-331.200933	0.918527
	505.000000	-330.665953	0.918680
	506.000000	-330.381206	0.918702
	507.000000	-329.811711	0.918570
	508.000000	-329.518335	0.918395
	509.000000	-328.983355	0.918965
	510.000000	-328.482890	0.918833
	511.000000	-328.025569	0.918417
	512.000000	-327.516475	0.918658
	513.000000	-327.274871	0.918943
	514.000000	-326.912465	0.918702
	515.000000	-325.971936	0.918833
	516.000000	-325.756218	0.918899
	517.000000	-325.428327	0.918768
	518.000000	-324.694887	0.918790
	519.000000	-324.332481	0.918812
	520.000000	-323.840645	0.918724
	521.000000	-323.504125	0.918592
	522.000000	-322.822457	0.919075
	523.000000	-322.330620	0.918790
	524.000000	-321.812898	0.918592
	525.000000	-321.277918	0.918680
	526.000000	-320.837854	0.918746
	527.000000	-320.527220	0.918680
	528.000000	-319.966354	0.918614
	529.000000	-319.440003	0.918965
	530.000000	-318.663419	0.918658
	531.000000	-318.275127	0.918220
	532.000000	-317.515801	0.918746
	533.000000	-317.265568	0.918658
	534.000000	-316.739217	0.919031
	535.000000	-316.143836	0.918812
	536.000000	-315.626113	0.919009
	537.000000	-315.004846	0.918417
	538.000000	-314.461238	0.918702
	539.000000	-313.934886	0.918614
	540.000000	-313.745055	0.918855
	541.000000	-313.028872	0.918373
	542.000000	-312.528407	0.918899
	543.000000	-311.907140	0.918417
	544.000000	-311.544734	0.918899
	545.000000	-310.785407	0.918899
	546.000000	-310.181398	0.918724
	547.000000	-309.680933	0.918505
	548.000000	-309.016522	0.918395
	549.000000	-308.550572	0.918636
	550.000000	-307.825760	0.918921
	551.000000	-307.290780	0.918592
	552.000000	-306.902488	0.919140
	553.000000	-306.427909	0.918724
	554.000000	-305.565038	0.918636
	555.000000	-305.340692	0.918987
	556.000000	-304.512336	0.918044
	557.000000	-303.787524	0.918483
	558.000000	-303.166257	0.918833
	559.000000	-302.225728	0.918790
	560.000000	-301.940980	0.918899
	561.000000	-301.302456	0.918855
	562.000000	-300.638045	0.919075
	563.000000	-300.163466	0.918592
	564.000000	-299.740659	0.918549
	565.000000	-298.903675	0.918702
	566.000000	-298.368695	0.918921
	567.000000	-297.557596	0.918549
	568.000000	-297.074388	0.918505
	569.000000	-296.159745	0.918549
	570.000000	-295.702423	0.919316
	571.000000	-294.891325	0.918592
	572.000000	-294.252800	0.919096
	573.000000	-293.769592	0.918614
	574.000000	-292.941236	0.918855
	575.000000	-292.199167	0.918614
	576.000000	-291.517499	0.918702
	577.000000	-291.120578	0.918461
	578.000000	-290.318108	0.919228
	579.000000	-289.256777	0.918570
	580.000000	-288.747683	0.919228
	581.000000	-287.876184	0.918461
	582.000000	-287.349832	0.918833
	583.000000	-286.366159	0.919140
	584.000000	-285.555061	0.918768
	585.000000	-285.020081	0.918395
	586.000000	-284.165838	0.918570
	587.000000	-283.492799	0.918899
	588.000000	-282.379695	0.919381
	589.000000	-281.853344	0.919294
	590.000000	-281.171676	0.918899
	591.000000	-280.300176	0.918658
	592.000000	-279.592622	0.918636
	593.000000	-278.496776	0.918527
	594.000000	-277.979053	0.918899
	595.000000	-276.995380	0.918505
	596.000000	-276.244683	0.919096
	597.000000	-275.235124	0.918921
	598.000000	-274.294594	0.919338
	599.000000	-273.181491	0.918417
	600.000000	-272.586110	0.918855
	601.000000	-271.792268	0.918636
	602.000000	-270.618764	0.918592
	603.000000	-270.092412	0.918286
	604.000000	-269.013824	0.918965
	605.000000	-268.159581	0.919096
	606.000000	-267.055106	0.918943
	607.000000	-265.864344	0.918614
	608.000000	-265.061874	0.918768
	609.000000	-264.095459	0.918614
	610.000000	-263.387905	0.919316
	611.000000	-262.248915	0.918570
	612.000000	-261.135811	0.918570
	613.000000	-259.936421	0.918965
	614.000000	-259.228866	0.919294
	615.000000	-257.934560	0.918636
	616.000000	-257.321921	0.918855
	617.000000	-255.716981	0.918702
	618.000000	-254.612506	0.918855
	619.000000	-253.689234	0.918527
	620.000000	-252.627903	0.918746
	621.000000	-251.463027	0.918329
	622.000000	-250.746844	0.918483
	623.000000	-249.564711	0.918680
	624.000000	-248.235889	0.918527
	625.000000	-247.260845	0.918505
	626.000000	-245.957910	0.918417
	627.000000	-244.836177	0.919031
	628.000000	-243.610901	0.919075
	629.000000	-242.325223	0.918592
	630.000000	-241.143089	0.918921
	631.000000	-240.073129	0.918768
	632.000000	-238.847852	0.918790
	633.000000	-237.536288	0.918724
	634.000000	-236.250610	0.918943
	635.000000	-235.146135	0.918549
	636.000000	-233.774170	0.918790
	637.000000	-232.695582	0.918768
	638.000000	-231.271844	0.918833
	639.000000	-229.856736	0.919140
	640.000000	-228.855805	0.919162
	641.000000	-227.294009	0.918877
	642.000000	-225.922044	0.918658
	643.000000	-224.739910	0.918307
	644.000000	-223.247143	0.918790
	645.000000	-222.099525	0.918790
	646.000000	-220.718931	0.919162
	647.000000	-219.459139	0.918527
	648.000000	-218.130318	0.919162
	649.000000	-216.654808	0.918921
	650.000000	-215.049868	0.918746
	651.000000	-213.669274	0.918570
	652.000000	-212.314566	0.918943
	653.000000	-210.597453	0.918746
	654.000000	-209.579265	0.919075
	655.000000	-207.957067	0.918636
	656.000000	-206.619617	0.918724
	657.000000	-205.092335	0.918592
	658.000000	-203.867058	0.919075
	659.000000	-202.322519	0.918833
	660.000000	-200.665806	0.918702
	661.000000	-199.242069	0.918724
	662.000000	-198.016792	0.919140
	663.000000	-196.411851	0.918505
	664.000000	-194.608451	0.918461
	665.000000	-193.236486	0.918483
	666.000000	-191.519372	0.918987
	667.000000	-190.087006	0.919009
	668.000000	-188.594239	0.918307
	669.000000	-187.308561	0.918527
	670.000000	-185.522417	0.918877
	671.000000	-184.150452	0.918877
	672.000000	-182.485111	0.918329
	673.000000	-180.931943	0.918680
	674.000000	-179.335631	0.918943
	675.000000	-177.825606	0.918965
	676.000000	-176.108493	0.918242
	677.000000	-174.253320	0.918220
	678.000000	-172.846840	0.918527
	679.000000	-171.362701	0.918965
	680.000000	-169.481642	0.919118
	681.000000	-167.928474	0.918220
	682.000000	-166.306276	0.918505
	683.000000	-164.727222	0.918790
	684.000000	-163.096395	0.918833
	685.000000	-161.275737	0.918636
	686.000000	-159.480965	0.918680
	687.000000	-157.789737	0.918680
	688.000000	-156.063995	0.918658
	689.000000	-154.717916	0.918702
	690.000000	-153.000802	0.918636
	691.000000	-151.188772	0.918965
	692.000000	-149.488916	0.918790
	693.000000	-147.789060	0.918724
	694.000000	-145.804456	0.918987
	695.000000	-144.467005	0.919096
	696.000000	-142.292570	0.918680
	697.000000	-140.834317	0.918724
	698.000000	-138.789312	0.918592
	699.000000	-137.201629	0.918570
	700.000000	-135.303312	0.918833
	701.000000	-133.870946	0.918746
	702.000000	-131.748283	0.918899
	703.000000	-130.091570	0.918899
	704.000000	-128.478001	0.918746
	705.000000	-126.510654	0.919316
	706.000000	-124.750397	0.918877
	707.000000	-123.128199	0.918680
	708.000000	-121.316169	0.918483
	709.000000	-119.486882	0.918768
	710.000000	-117.769768	0.919294
	711.000000	-116.052654	0.918483
	712.000000	-113.791931	0.918373
	713.000000	-112.376822	0.918768
	714.000000	-110.590678	0.918965
	715.000000	-108.485272	0.918592
	716.000000	-106.854445	0.918527
	717.000000	-105.154589	0.918833
	718.000000	-103.092326	0.918768
	719.000000	-101.150866	0.919053
	720.000000	-99.381980	0.918614
	721.000000	-97.483663	0.918549
	722.000000	-95.801063	0.919118
	723.000000	-93.928633	0.919118
	724.000000	-91.883627	0.918614
	725.000000	-89.985310	0.919031
	726.000000	-88.199167	0.919075
	727.000000	-86.292221	0.919118
	728.000000	-84.583736	0.918833
	729.000000	-82.719933	0.918899
	730.000000	-80.640413	0.919009
	731.000000	-79.052730	0.918790
	732.000000	-76.800636	0.918943
	733.000000	-75.178437	0.918987
	734.000000	-73.167947	0.918527
	735.000000	-71.209229	0.918614
	736.000000	-69.552516	0.919140
	737.000000	-67.369451	0.918768
	738.000000	-65.799025	0.919272
	739.000000	-63.650475	0.918680
	740.000000	-61.743529	0.918812
	741.000000	-59.655380	0.918768
	742.000000	-58.024553	0.918702
	743.000000	-55.772459	0.918855
	744.000000	-54.081231	0.918658
	745.000000	-52.260572	0.919425
	746.000000	-50.379512	0.919338
	747.000000	-48.230962	0.918790
	748.000000	-46.591506	0.918790
	749.000000	-44.658674	0.919162
	750.000000	-42.510124	0.918790
	751.000000	-40.603178	0.918877
	752.000000	-38.644460	0.919053
	753.000000	-36.763400	0.919031
	754.000000	-34.718394	0.919009
	755.000000	-32.794191	0.918483
	756.000000	-30.826844	0.918833
	757.000000	-28.592007	0.918790
	758.000000	-27.151011	0.918921
	759.000000	-25.295837	0.919425
	760.000000	-22.776253	0.918965
	761.000000	-21.136797	0.918702
	762.000000	-19.126306	0.919075
	763.000000	-17.297018	0.919228
	764.000000	-15.226126	0.918987
	765.000000	-13.327809	0.919118
	766.000000	-11.239660	0.919140
	767.000000	-9.488031	0.919075
	768.000000	-7.563827	0.919031
	769.000000	-5.423905	0.918724
	770.000000	-3.404786	0.918899
	771.000000	-1.523726	0.919031
	772.000000	0.357334	0.919206
	773.000000	2.290167	0.918570
	774.000000	4.473232	0.918877
	775.000000	6.293891	0.919031
	776.000000	8.468327	0.919250
	777.000000	10.496076	0.918877
	778.000000	12.480680	0.919053
	779.000000	14.180538	0.918921
	780.000000	16.199657	0.918877
	781.000000	18.244663	0.918768
	782.000000	20.142981	0.919053
	783.000000	22.127585	0.919075
	784.000000	24.008646	0.919425
	785.000000	26.372914	0.918943
	786.000000	27.951969	0.919272
	787.000000	29.936574	0.919294
	788.000000	31.852149	0.919031
	789.000000	34.052472	0.919140
	790.000000	35.778215	0.918790
	791.000000	37.874994	0.918724
	792.000000	40.118460	0.919031
	793.000000	41.680258	0.919140
	794.000000	43.794294	0.919053
	795.000000	45.649468	0.918921
	796.000000	47.608187	0.919009
	797.000000	49.825767	0.919316
	798.000000	51.447966	0.918790
	799.000000	53.562002	0.919009
	800.000000	55.451691	0.918636
	801.000000	57.557098	0.919096
	802.000000	59.291470	0.918855
	803.000000	61.672996	0.919228
	804.000000	63.390111	0.918549
	805.000000	65.331572	0.919228
	806.000000	67.557782	0.919140
	807.000000	69.361184	0.919447
	808.000000	71.155957	0.918702
	809.000000	73.140562	0.919316
	810.000000	74.935335	0.918921
	811.000000	77.066629	0.919162
	812.000000	78.904546	0.919053
	813.000000	80.794235	0.918965
	814.000000	83.046330	0.918768
	815.000000	84.642643	0.919053
	816.000000	86.635877	0.919075
	817.000000	88.560082	0.919228
	818.000000	90.596459	0.919403
	819.000000	92.684609	0.919359
	820.000000	94.108348	0.918899
	821.000000	96.213755	0.919206
	822.000000	98.250132	0.919184
	823.000000	100.191594	0.919359
	824.000000	102.133056	0.919425
	825.000000	104.290236	0.919096
	826.000000	105.783004	0.918592
	827.000000	107.784867	0.919403
	828.000000	109.717700	0.919272
	829.000000	111.710934	0.919403
	830.000000	113.272732	0.919206
	831.000000	115.516199	0.919338
	832.000000	117.397260	0.919250
	833.000000	119.286950	0.925365
	834.000000	120.831490	0.936981
	835.000000	122.738437	0.937112
	836.000000	124.895617	0.936893
	837.000000	126.327985	0.937266
	838.000000	128.321219	0.937200
	839.000000	130.383483	0.937003
	840.000000	132.393974	0.936915
	841.000000	133.929887	0.937551
	842.000000	135.854091	0.937616
	843.000000	137.838697	0.937244
	844.000000	139.521297	0.936762
	845.000000	141.523160	0.937025
	846.000000	143.369706	0.937134
	847.000000	145.009163	0.937266
	848.000000	147.097313	0.937222
	849.000000	148.641854	0.937003
	850.000000	150.730005	0.937485
	851.000000	152.403976	0.937309
	852.000000	154.319552	0.936959
	853.000000	156.105697	0.937112
	854.000000	158.098932	0.937244
	855.000000	159.893706	0.937901
	856.000000	161.714366	0.937419
	857.000000	163.163991	0.937090
	858.000000	165.053681	0.937288
	859.000000	166.822568	0.937309
	860.000000	168.625971	0.937266
	861.000000	170.515661	0.936805
	862.000000	172.103346	0.936959
	863.000000	174.131095	0.937572
	864.000000	175.761923	0.937090
	865.000000	177.755158	0.937309
	866.000000	179.023580	0.937222
	867.000000	181.103102	0.937156
	868.000000	182.708044	0.937397
	869.000000	184.658135	0.937288
	870.000000	186.245820	0.937616
	871.000000	187.971564	0.936959
	872.000000	189.455704	0.937134
	873.000000	191.474825	0.936915
	874.000000	192.933079	0.937222
	875.000000	194.986715	0.936937
	876.000000	196.539884	0.936849
	877.000000	198.377802	0.937112
	878.000000	199.861942	0.937419
	879.000000	201.570429	0.937068
	880.000000	203.261659	0.936981
	881.000000	205.159978	0.937353
	882.000000	206.600974	0.937331
	883.000000	208.827185	0.937068
	884.000000	210.207780	0.937244
	885.000000	211.778208	0.936915
	886.000000	213.616125	0.937616
	887.000000	215.048493	0.937266
	888.000000	217.015842	0.937485
	889.000000	218.267007	0.936849
	890.000000	220.156697	0.937375
	891.000000	221.830669	0.937485
	892.000000	223.219894	0.937507
	893.000000	225.126841	0.937529
	894.000000	226.740412	0.937200
	895.000000	228.423013	0.937090
	896.000000	230.053842	0.937551
	897.000000	231.494839	0.937134
	898.000000	233.039380	0.937551
	899.000000	234.644323	0.937244
	900.000000	236.430468	0.937660
	901.000000	237.880094	0.937485
	902.000000	239.528180	0.937397
	903.000000	241.245296	0.937594
	904.000000	242.634520	0.937638
	905.000000	244.144547	0.937134
	906.000000	245.507885	0.937134
	907.000000	247.501120	0.937025
	908.000000	248.864458	0.937222
	909.000000	250.374485	0.937068
	910.000000	252.057086	0.937441
	911.000000	253.420425	0.937397
	912.000000	255.068511	0.937419
	913.000000	256.690711	0.937616
	914.000000	258.002277	0.937244
	915.000000	259.797051	0.937222
	916.000000	260.970558	0.936937
	917.000000	262.687674	0.937441
	918.000000	264.309874	0.937463
	919.000000	265.448866	0.937353
	920.000000	267.027922	0.937441
	921.000000	268.615607	0.936981
	922.000000	270.367238	0.937463
	923.000000	271.618403	0.937616
	924.000000	273.050772	0.937068
	925.000000	274.603942	0.937507
	926.000000	276.182999	0.937244
	927.000000	277.252960	0.937244
	928.000000	279.021849	0.937178
	929.000000	279.971009	0.937112
	930.000000	281.308461	0.937485
	931.000000	282.732200	0.937375
	932.000000	284.345772	0.937003
	933.000000	285.605566	0.937309
	934.000000	287.098335	0.937266
	935.000000	288.582476	0.937616
	936.000000	290.075245	0.937156
	937.000000	291.188351	0.937529
	938.000000	292.430887	0.937331
	939.000000	294.061716	0.936959
	940.000000	295.192079	0.937507
	941.000000	296.684849	0.937353
	942.000000	297.892870	0.937507
	943.000000	299.558214	0.937266
	944.000000	300.619547	0.937288
	945.000000	301.749910	0.937397
	946.000000	303.285824	0.937792
	947.000000	304.485216	0.937134
	948.000000	305.753639	0.937068
	949.000000	307.229151	0.936915
	950.000000	308.670148	0.937178
	951.000000	309.645194	0.937529
	952.000000	311.155221	0.937309
	953.000000	312.371872	0.937463
	954.000000	313.631665	0.937353
	955.000000	314.684370	0.937638
	956.000000	316.064966	0.937090
	957.000000	317.324760	0.937397
	958.000000	318.662213	0.937134
	959.000000	319.706288	0.937200
	960.000000	320.983340	0.937660
	961.000000	322.432966	0.937222
	962.000000	323.554700	0.937375
	963.000000	324.659177	0.937266
	964.000000	325.789540	0.936849
	965.000000	327.135622	0.937266
	966.000000	328.179698	0.937090
	967.000000	329.404977	0.937046
	968.000000	330.699286	0.937112
	969.000000	331.872792	0.937112
	970.000000	332.649378	0.937156
	971.000000	334.228435	0.937748
	972.000000	335.108565	0.937090
	973.000000	336.213042	0.937222
	974.000000	337.412435	0.937200
	975.000000	338.516912	0.937134
	976.000000	339.707676	0.937397
	977.000000	340.622321	0.937046
	978.000000	341.933888	0.937923
	979.000000	343.064251	0.937660
	980.000000	343.892609	0.937353
	981.000000	345.100630	0.937156
	982.000000	346.351796	0.937397
	983.000000	347.309585	0.937288
	984.000000	348.465834	0.937178
	985.000000	349.156132	0.937112
	986.000000	350.346896	0.937616
	987.000000	351.796523	0.937375
	988.000000	352.995916	0.937353
	989.000000	353.737986	0.937244
	990.000000	354.488686	0.937112
	991.000000	355.800252	0.937046
	992.000000	356.706268	0.937222
	993.000000	357.707201	0.937112
	994.000000	358.785792	0.937507
	995.000000	360.105987	0.937507
	996.000000	361.063776	0.937003
	997.000000	361.883505	0.936981
	998.000000	363.238215	0.937178
	999.000000	363.928513	0.937572

